Frequency [Hz], FFT Amplitude [Vrms]
0,21.345
7.812,15.132
15.625,0.56
23.437,0.591
31.25,0.593
39.062,0.591
46.875,0.554
54.687,0.526
62.5,0.49
70.312,0.419
78.125,0.509
85.937,0.569
93.75,0.559
101.562,0.514
109.375,0.521
117.187,0.541
125,0.552
132.812,0.489
140.625,0.521
148.437,0.518
156.25,0.512
164.062,0.494
171.875,0.549
179.687,0.522
187.5,0.46
195.312,0.495
203.125,0.539
210.937,0.607
218.75,0.642
226.562,0.831
234.375,1.178
242.187,2.12
250,3.42
257.812,2.522
265.625,1.417
273.437,0.883
281.25,0.643
289.062,0.508
296.875,0.456
304.687,0.468
312.5,0.405
320.312,0.463
328.125,0.451
335.937,0.393
343.75,0.454
351.562,0.456
359.375,0.406
367.187,0.405
375,0.443
382.812,0.405
390.625,0.397
398.437,0.421
406.25,0.376
414.062,0.355
421.875,0.347
429.687,0.347
437.5,0.335
445.312,0.346
453.125,0.314
460.937,0.316
468.75,0.361
476.562,0.358
484.375,0.407
492.187,0.378
500,0.343
507.812,0.338
515.625,0.386
523.437,0.373
531.25,0.368
539.062,0.378
546.875,0.299
554.687,0.296
562.5,0.325
570.312,0.32
578.125,0.294
585.937,0.279
593.75,0.286
601.562,0.306
609.375,0.302
617.187,0.324
625,0.306
632.812,0.291
640.625,0.287
648.437,0.301
656.25,0.304
664.062,0.292
671.875,0.271
679.687,0.281
687.5,0.263
695.312,0.269
703.125,0.26
710.937,0.263
718.75,0.264
726.562,0.251
734.375,0.27
742.187,0.281
750,0.288
757.812,0.319
765.625,0.309
773.437,0.271
781.25,0.244
789.062,0.259
796.875,0.267
804.687,0.227
812.5,0.251
820.312,0.26
828.125,0.272
835.937,0.258
843.75,0.243
851.562,0.218
859.375,0.221
867.187,0.242
875,0.244
882.812,0.211
890.625,0.218
898.437,0.231
906.25,0.228
914.062,0.231
921.875,0.243
929.687,0.241
937.5,0.218
945.312,0.201
953.125,0.194
960.937,0.204
968.75,0.219
976.562,0.218
984.375,0.209
992.187,0.223
1000,0.224
1007.812,0.227
1015.625,0.204
1023.437,0.231
1031.25,0.246
1039.062,0.206
1046.875,0.2
1054.687,0.207
1062.5,0.192
1070.312,0.193
1078.125,0.218
1085.937,0.204
1093.75,0.194
1101.562,0.203
1109.375,0.222
1117.187,0.21
1125,0.204
1132.812,0.189
1140.625,0.195
1148.437,0.205
1156.25,0.212
1164.062,0.186
1171.875,0.197
1179.687,0.183
1187.5,0.197
1195.312,0.191
1203.125,0.173
1210.937,0.164
1218.75,0.153
1226.562,0.158
1234.375,0.184
1242.187,0.192
1250,0.188
1257.812,0.188
1265.625,0.182
1273.437,0.177
1281.25,0.176
1289.062,0.177
1296.875,0.183
1304.687,0.183
1312.5,0.194
1320.312,0.176
1328.125,0.176
1335.937,0.172
1343.75,0.186
1351.562,0.182
1359.375,0.184
1367.187,0.181
1375,0.18
1382.812,0.178
1390.625,0.165
1398.437,0.154
1406.25,0.171
1414.062,0.161
1421.875,0.159
1429.687,0.142
1437.5,0.159
1445.312,0.172
1453.125,0.155
1460.937,0.16
1468.75,0.156
1476.562,0.146
1484.375,0.146
1492.187,0.137
1500,0.149
1507.812,0.165
1515.625,0.15
1523.437,0.153
1531.25,0.165
1539.062,0.158
1546.875,0.14
1554.687,0.135
1562.5,0.138
1570.312,0.142
1578.125,0.153
1585.937,0.169
1593.75,0.159
1601.562,0.146
1609.375,0.158
1617.187,0.148
1625,0.126
1632.812,0.125
1640.625,0.143
1648.437,0.148
1656.25,0.157
1664.062,0.166
1671.875,0.155
1679.687,0.16
1687.5,0.163
1695.312,0.158
1703.125,0.118
1710.937,0.122
1718.75,0.146
1726.562,0.139
1734.375,0.146
1742.187,0.146
1750,0.132
1757.812,0.131
1765.625,0.122
1773.437,0.143
1781.25,0.146
1789.062,0.128
1796.875,0.129
1804.687,0.14
1812.5,0.143
1820.312,0.129
1828.125,0.149
1835.937,0.132
1843.75,0.126
1851.562,0.137
1859.375,0.127
1867.187,0.129
1875,0.138
1882.812,0.135
1890.625,0.113
1898.437,0.111
1906.25,0.133
1914.062,0.132
1921.875,0.124
1929.687,0.126
1937.5,0.114
1945.312,0.135
1953.125,0.133
1960.937,0.127
1968.75,0.132
1976.562,0.128
1984.375,0.128
1992.187,0.123
2000,0.12
2007.812,0.12
2015.625,0.124
2023.437,0.124
2031.25,0.141
2039.062,0.14
2046.875,0.124
2054.687,0.121
2062.5,0.124
2070.312,0.128
2078.125,0.12
2085.937,0.112
2093.75,0.116
2101.562,0.113
2109.375,0.12
2117.187,0.111
2125,0.114
2132.812,0.116
2140.625,0.115
2148.437,0.099
2156.25,0.123
2164.062,0.115
2171.875,0.119
2179.687,0.114
2187.5,0.12
2195.312,0.127
2203.125,0.117
2210.937,0.118
2218.75,0.125
2226.562,0.125
2234.375,0.116
2242.187,0.115
2250,0.107
2257.812,0.109
2265.625,0.091
2273.437,0.103
2281.25,0.116
2289.062,0.114
2296.875,0.123
2304.687,0.123
2312.5,0.11
2320.312,0.093
2328.125,0.103
2335.937,0.12
2343.75,0.109
2351.562,0.106
2359.375,0.105
2367.187,0.1
2375,0.099
2382.812,0.112
2390.625,0.116
2398.437,0.121
2406.25,0.108
2414.062,0.112
2421.875,0.111
2429.687,0.117
2437.5,0.119
2445.312,0.106
2453.125,0.116
2460.937,0.119
2468.75,0.106
2476.562,0.107
2484.375,0.109
2492.187,0.1
2500,0.093
2507.812,0.101
2515.625,0.103
2523.437,0.1
2531.25,0.09
2539.062,0.089
2546.875,0.101
2554.687,0.107
2562.5,0.116
2570.312,0.107
2578.125,0.105
2585.937,0.119
2593.75,0.113
2601.562,0.106
2609.375,0.098
2617.187,0.097
2625,0.104
2632.812,0.111
2640.625,0.111
2648.437,0.101
2656.25,0.099
2664.062,0.101
2671.875,0.103
2679.687,0.11
2687.5,0.104
2695.312,0.092
2703.125,0.098
2710.937,0.107
2718.75,0.101
2726.562,0.104
2734.375,0.097
2742.187,0.093
2750,0.104
2757.812,0.096
2765.625,0.097
2773.437,0.089
2781.25,0.103
2789.062,0.106
2796.875,0.104
2804.687,0.093
2812.5,0.098
2820.312,0.098
2828.125,0.101
2835.937,0.101
2843.75,0.092
2851.562,0.103
2859.375,0.113
2867.187,0.103
2875,0.103
2882.812,0.102
2890.625,0.103
2898.437,0.103
2906.25,0.103
2914.062,0.091
2921.875,0.092
2929.687,0.103
2937.5,0.096
2945.312,0.09
2953.125,0.105
2960.937,0.107
2968.75,0.093
2976.562,0.096
2984.375,0.1
2992.187,0.088
3000,0.086
3007.812,0.09
3015.625,0.092
3023.437,0.098
3031.25,0.092
3039.062,0.093
3046.875,0.088
3054.687,0.093
3062.5,0.094
3070.312,0.089
3078.125,0.093
3085.937,0.094
3093.75,0.093
3101.562,0.103
3109.375,0.095
3117.187,0.09
3125,0.082
3132.812,0.083
3140.625,0.099
3148.437,0.094
3156.25,0.088
3164.062,0.087
3171.875,0.088
3179.687,0.097
3187.5,0.095
3195.312,0.088
3203.125,0.084
3210.937,0.084
3218.75,0.097
3226.562,0.078
3234.375,0.095
3242.187,0.108
3250,0.098
3257.812,0.091
3265.625,0.09
3273.437,0.097
3281.25,0.101
3289.062,0.106
3296.875,0.102
3304.687,0.091
3312.5,0.081
3320.312,0.091
3328.125,0.104
3335.937,0.097
3343.75,0.089
3351.562,0.094
3359.375,0.1
3367.187,0.092
3375,0.085
3382.812,0.091
3390.625,0.09
3398.437,0.084
3406.25,0.093
3414.062,0.084
3421.875,0.077
3429.687,0.086
3437.5,0.088
3445.312,0.095
3453.125,0.092
3460.937,0.082
3468.75,0.085
3476.562,0.088
3484.375,0.081
3492.187,0.093
3500,0.084
3507.812,0.081
3515.625,0.09
3523.437,0.091
3531.25,0.089
3539.062,0.097
3546.875,0.091
3554.687,0.091
3562.5,0.088
3570.312,0.088
3578.125,0.093
3585.937,0.086
3593.75,0.086
3601.562,0.086
3609.375,0.089
3617.187,0.079
3625,0.087
3632.812,0.099
3640.625,0.097
3648.437,0.089
3656.25,0.088
3664.062,0.085
3671.875,0.095
3679.687,0.088
3687.5,0.078
3695.312,0.08
3703.125,0.092
3710.937,0.093
3718.75,0.091
3726.562,0.083
3734.375,0.085
3742.187,0.09
3750,0.09
3757.812,0.089
3765.625,0.091
3773.437,0.099
3781.25,0.103
3789.062,0.095
3796.875,0.093
3804.687,0.095
3812.5,0.092
3820.312,0.102
3828.125,0.099
3835.937,0.094
3843.75,0.084
3851.562,0.089
3859.375,0.095
3867.187,0.095
3875,0.089
3882.812,0.091
3890.625,0.09
3898.437,0.08
3906.25,0.081
3914.062,0.082
3921.875,0.084
3929.687,0.082
3937.5,0.094
3945.312,0.08
3953.125,0.089
3960.937,0.097
3968.75,0.089
3976.562,0.09
3984.375,0.089
3992.187,0.08
